File: WIPRO Turbo Internship/Datasets/Spices/ChillyPowderColumn 1_064089_20160418_164742.csv
Method:,Column 1,,
Host Date-Time:,18/4/16 @ 16:47:42,,
Header Version:,1,,
System Temp hundredths:,3273,,
Detector Temp hundredths:,3055,,
Humidity hundredths:,1341,,
Lamp PD:,3768,,
Shift Vector Coefficients:,-4.47974,0.0448891,-0.000109265,,
Pixel to Wavelength Coefficients:,1792.1,-0.928226,-0.000229463,,
Serial Number:,5490239,,
Scan Config Name:,Column 1,,
Scan Config Type:,2,,
Start wavelength in nm:,900,,
End wavelength in nm:,1700,,
Pattern Pixel Width:,6,,
Number of Measurement points:,228,,
Num Repeats:,6,,
PGA Gain:,64,,
Total Measurement Time (s):,2,,
Wavelength (nm),Absorbance (AU),Reference Signal (unitless),Sample Signal (unitless)
900.723,0.344652,64701,29259
905.903,0.271071,80807,43289
909.784,0.225353,90252,53716
913.66,0.190227,98832,63778
917.533,0.182237,108214,71129
921.401,0.181627,120081,79040
925.265,0.187651,134618,87388
929.125,0.191724,152080,97802
932.981,0.195306,171754,109547
936.833,0.188960,192235,124415
941.962,0.175406,218303,145765
945.804,0.162676,236285,162465
949.642,0.150658,252581,178543
953.475,0.141986,268843,193871
957.305,0.136112,284409,207889
961.131,0.130923,300415,222228
964.952,0.127283,315812,235584
968.769,0.125833,331706,248268
972.582,0.123759,347597,261407
976.391,0.122390,362603,273553
981.464,0.119297,381663,289990
985.263,0.117701,394207,300624
989.058,0.115303,405268,310770
992.849,0.113079,414919,319804
996.636,0.110532,422744,327752
1000.42,0.108820,429985,334683
1004.2,0.106560,435731,340925
1007.97,0.103919,439787,346197
1011.74,0.101889,442999,350359
1016.76,0.099650,446147,354673
1020.52,0.098615,447570,356653
1024.28,0.097137,448137,358322
1028.03,0.095357,447447,359240
1031.78,0.094913,447066,359301
1035.53,0.093467,446139,359752
1039.27,0.092594,445335,359826
1043,0.091380,443993,359746
1046.73,0.090384,441985,358941
1050.46,0.089568,439703,357760
1055.43,0.089677,438747,356892
1059.14,0.089602,437920,356281
1062.86,0.089555,436828,355431
1066.57,0.090135,436218,354461
1070.27,0.090656,437019,354686
1073.98,0.090569,437923,355491
1077.67,0.090900,438436,355636
1081.37,0.090884,439593,356588
1085.06,0.090591,441201,358134
1089.97,0.090803,442941,359371
1093.65,0.090420,445537,361796
1097.32,0.090777,448116,363591
1100.99,0.090373,449422,364990
1104.66,0.089464,451109,367128
1108.32,0.090256,453992,368801
1111.98,0.089567,457203,371999
1115.64,0.089823,459746,373848
1119.29,0.089314,461686,375866
1124.15,0.089254,463762,377608
1127.79,0.089564,465594,378829
1131.43,0.090315,467340,379593
1135.06,0.090733,468769,380387
1138.69,0.091984,470277,380513
1142.31,0.094198,471885,379873
1145.93,0.097286,474025,378892
1149.55,0.099211,475849,378668
1153.16,0.102776,477793,377106
1156.77,0.106219,479500,375465
1161.58,0.111700,482364,372971
1165.17,0.115654,485131,371711
1168.77,0.119928,488511,370635
1172.36,0.123204,491250,369912
1175.94,0.126635,494537,369457
1179.53,0.129827,498615,369776
1183.1,0.133659,504468,370830
1186.68,0.137935,510422,371530
1190.25,0.141835,516637,372692
1195,0.147932,526142,374258
1198.56,0.151835,533671,376217
1202.11,0.155704,540939,377959
1205.67,0.159370,548916,380308
1209.21,0.162512,558110,383891
1212.76,0.165283,566953,387493
1216.3,0.166238,575650,392573
1219.83,0.165345,584869,399681
1223.36,0.162620,595021,409178
1226.89,0.158429,604954,420043
1231.58,0.151411,617050,435421
1235.1,0.145430,626559,448262
1238.61,0.140314,636932,461083
1242.12,0.136162,647247,473051
1245.63,0.132521,655372,483022
1249.13,0.129201,664642,493613
1252.63,0.126552,674555,504040
1256.12,0.124845,684692,513630
1259.61,0.122342,692978,522851
1264.25,0.121222,706063,534099
1267.73,0.119858,716021,543335
1271.2,0.118933,725552,551741
1274.67,0.117403,734127,560233
1278.14,0.116151,742906,568568
1281.6,0.115220,750480,575598
1285.06,0.113889,757621,582858
1288.51,0.112615,764167,589622
1291.96,0.111419,771928,597252
1296.56,0.110384,779372,604451
1300,0.109110,783046,609084
1303.43,0.108537,787236,613152
1306.86,0.108144,792393,617727
1310.29,0.107344,796376,621977
1313.72,0.107320,798307,623520
1317.13,0.107101,801175,626075
1320.55,0.107163,804861,628865
1323.96,0.106811,807833,631699
1327.37,0.107744,809608,631729
1331.9,0.109231,811327,630906
1335.3,0.110384,812775,630357
1338.69,0.111601,813544,629188
1342.08,0.113065,812602,626344
1345.47,0.115104,811826,622815
1348.85,0.117409,811585,619334
1352.23,0.119403,810158,615413
1355.6,0.121537,807876,610672
1358.97,0.124539,805252,604495
1363.45,0.129463,804229,596921
1366.81,0.133019,803029,591170
1370.17,0.136141,801212,585607
1373.52,0.139675,799981,579969
1376.86,0.143719,798624,573619
1380.2,0.146994,795747,567258
1383.54,0.151099,792504,559632
1386.88,0.155092,790222,552914
1390.21,0.160057,788607,545511
1393.53,0.166186,785518,535760
1397.96,0.174271,779920,522131
1401.28,0.180239,776342,512642
1404.59,0.187349,773563,502512
1407.9,0.195453,769684,490749
1411.2,0.204366,765635,478251
1414.5,0.215293,762767,464621
1417.8,0.225411,760810,452757
1421.09,0.236590,758503,439914
1424.37,0.246568,755935,428466
1428.75,0.260620,753840,413675
1432.03,0.270457,752941,403928
1435.3,0.278431,751451,395794
1438.57,0.285683,750582,388790
1441.84,0.291939,749740,382800
1445.1,0.296813,748245,377773
1448.35,0.300949,747231,373685
1451.61,0.304647,746115,369963
1454.85,0.307080,743794,366752
1459.18,0.308668,741747,364408
1462.42,0.310261,739561,362004
1465.65,0.310709,736862,360311
1468.88,0.311254,734038,358480
1472.11,0.312186,730885,356175
1475.33,0.311223,727271,355200
1478.55,0.311142,723938,353638
1481.77,0.311451,721040,351972
1484.98,0.310244,717684,351309
1488.18,0.309183,713601,350165
1492.45,0.308202,708541,348468
1495.65,0.306979,704632,347523
1498.84,0.305408,700712,346842
1502.03,0.303695,695967,345855
1505.21,0.302502,691038,344350
1508.39,0.300614,686052,343355
1511.57,0.298891,680877,342119
1514.74,0.297714,675427,340302
1517.91,0.295700,670152,339214
1522.12,0.292948,662097,337267
1525.28,0.290866,656403,335973
1528.43,0.289415,650810,334225
1531.58,0.288436,644842,331908
1534.73,0.286927,638224,329645
1537.87,0.285292,631155,327223
1541.01,0.283761,625001,325177
1544.14,0.282596,618097,322449
1547.27,0.280695,610689,319982
1550.39,0.279864,602954,316534
1554.55,0.278107,592300,312201
1557.67,0.277281,584592,308725
1560.78,0.276026,576368,305263
1563.89,0.274021,568025,302236
1566.99,0.273186,559352,298194
1570.09,0.272741,550305,293672
1573.18,0.272581,541598,289132
1576.27,0.271224,532727,285286
1579.36,0.270594,523890,280961
1583.47,0.267901,510646,275562
1586.54,0.267761,501212,270558
1589.62,0.267224,492392,266126
1592.68,0.265657,482586,261769
1595.75,0.265019,472996,256944
1598.81,0.263356,462978,252467
1601.86,0.261097,453381,248523
1604.92,0.259414,443779,244204
1607.96,0.257371,433789,239832
1612.02,0.254684,420216,233770
1615.06,0.251511,409971,229743
1618.09,0.250641,400631,224959
1621.12,0.249476,390490,219854
1624.15,0.247722,380379,215028
1627.17,0.245653,370204,210275
1630.19,0.243613,360433,205689
1633.2,0.242448,350418,200511
1636.21,0.241639,340597,195255
1639.21,0.240204,330782,190256
1643.21,0.238497,317788,183502
1646.21,0.237670,307687,178008
1649.2,0.235241,297078,172834
1652.19,0.232845,287199,168011
1655.17,0.230850,276866,162712
1658.15,0.228718,265166,156603
1661.12,0.225195,252362,150255
1664.1,0.220814,238503,143443
1667.06,0.214717,222332,135608
1671.01,0.201047,197141,124088
1673.97,0.187819,175847,114108
1676.92,0.173841,154167,103312
1679.87,0.156900,132946,92635
1682.81,0.146936,113053,80602
1685.75,0.140916,95698,69181
1688.69,0.141819,80645,58178
1691.62,0.146220,68011,48569
1694.55,0.145876,57785,41299
1697.47,0.163515,49231,33785
1701.36,0.175201,40194,26851