File: WIPRO Turbo Internship/Datasets/Spices/ChillyPowderColumn 1_064087_20160418_164730.csv
Method:,Column 1,,
Host Date-Time:,18/4/16 @ 16:47:30,,
Header Version:,1,,
System Temp hundredths:,3264,,
Detector Temp hundredths:,3040,,
Humidity hundredths:,1341,,
Lamp PD:,3768,,
Shift Vector Coefficients:,-4.47974,0.0448891,-0.000109265,,
Pixel to Wavelength Coefficients:,1792.1,-0.928226,-0.000229463,,
Serial Number:,5490239,,
Scan Config Name:,Column 1,,
Scan Config Type:,2,,
Start wavelength in nm:,900,,
End wavelength in nm:,1700,,
Pattern Pixel Width:,6,,
Number of Measurement points:,228,,
Num Repeats:,6,,
PGA Gain:,64,,
Total Measurement Time (s):,2,,
Wavelength (nm),Absorbance (AU),Reference Signal (unitless),Sample Signal (unitless)
900.723,0.347884,64701,29042
905.903,0.270630,80807,43333
909.784,0.227046,90252,53507
913.66,0.191844,98832,63541
917.533,0.181840,108214,71194
921.401,0.184245,120081,78565
925.265,0.188442,134618,87229
929.125,0.194893,152080,97091
932.981,0.195941,171754,109387
936.833,0.191659,192235,123644
941.962,0.176842,218303,145284
945.804,0.164903,236285,161634
949.642,0.152603,252581,177745
953.475,0.144644,268843,192688
957.305,0.137246,284409,207347
961.131,0.132487,300415,221429
964.952,0.129794,315812,234226
968.769,0.127505,331706,247314
972.582,0.125921,347597,260109
976.391,0.123866,362603,272625
981.464,0.121716,381663,288379
985.263,0.119770,394207,299195
989.058,0.117832,405268,308966
992.849,0.115241,414919,318216
996.636,0.113128,422744,325799
1000.42,0.110724,429985,333219
1004.2,0.108686,435731,339260
1007.97,0.106438,439787,344195
1011.74,0.104342,442999,348386
1016.76,0.102472,446147,352376
1020.52,0.100726,447570,354924
1024.28,0.099583,448137,356310
1028.03,0.097952,447447,357100
1031.78,0.096867,447066,357688
1035.53,0.095961,446139,357692
1039.27,0.094983,445335,357852
1043,0.093715,443993,357817
1046.73,0.092896,441985,356871
1050.46,0.091790,439703,355934
1055.43,0.091675,438747,355254
1059.14,0.091471,437920,354751
1062.86,0.091526,436828,353822
1066.57,0.092310,436218,352690
1070.27,0.092149,437019,353469
1073.98,0.092673,437923,353773
1077.67,0.092411,438436,354401
1081.37,0.092995,439593,354859
1085.06,0.093498,441201,355745
1089.97,0.092776,442941,357742
1093.65,0.092634,445537,359956
1097.32,0.092936,448116,361788
1100.99,0.092029,449422,363601
1104.66,0.091689,451109,365252
1108.32,0.091685,453992,367590
1111.98,0.091376,457203,370453
1115.64,0.091233,459746,372636
1119.29,0.091546,461686,373939
1124.15,0.091096,463762,376010
1127.79,0.091384,465594,377245
1131.43,0.091585,467340,378484
1135.06,0.091914,468769,379354
1138.69,0.093631,470277,379073
1142.31,0.095721,471885,378543
1145.93,0.097867,474025,378385
1149.55,0.100757,475849,377322
1153.16,0.103625,477793,376370
1156.77,0.106975,479500,374812
1161.58,0.111608,482364,373050
1165.17,0.115776,485131,371606
1168.77,0.119796,488511,370748
1172.36,0.123572,491250,369599
1175.94,0.126941,494537,369197
1179.53,0.129130,498615,370370
1183.1,0.133017,504468,371378
1186.68,0.137035,510422,372301
1190.25,0.141138,516637,373291
1195,0.147517,526142,374616
1198.56,0.151570,533671,376447
1202.11,0.155095,540939,378489
1205.67,0.158380,548916,381176
1209.21,0.162657,558110,383763
1212.76,0.164398,566953,388284
1216.3,0.165704,575650,393056
1219.83,0.165107,584869,399900
1223.36,0.162508,595021,409284
1226.89,0.158073,604954,420387
1231.58,0.150906,617050,435928
1235.1,0.145596,626559,448091
1238.61,0.140047,636932,461367
1242.12,0.136099,647247,473120
1245.63,0.132101,655372,483489
1249.13,0.128783,664642,494089
1252.63,0.126448,674555,504161
1256.12,0.124508,684692,514028
1259.61,0.122322,692978,522874
1264.25,0.121196,706063,534131
1267.73,0.120516,716021,542512
1271.2,0.119424,725552,551118
1274.67,0.117847,734127,559660
1278.14,0.116565,742906,568027
1281.6,0.115790,750480,574843
1285.06,0.114622,757621,581875
1288.51,0.113420,764167,588529
1291.96,0.112475,771928,595802
1296.56,0.111526,779372,602863
1300,0.110715,783046,606838
1303.43,0.109391,787236,611947
1306.86,0.109387,792393,615961
1310.29,0.109083,796376,619491
1313.72,0.108837,798307,621345
1317.13,0.108582,801175,623944
1320.55,0.108736,804861,626592
1323.96,0.109402,807833,627942
1327.37,0.109643,809608,628972
1331.9,0.110812,811327,628614
1335.3,0.112390,812775,627452
1338.69,0.113850,813544,625938
1342.08,0.114778,812602,623879
1345.47,0.116500,811826,620816
1348.85,0.118993,811585,617079
1352.23,0.121257,810158,612791
1355.6,0.123423,807876,608026
1358.97,0.125766,805252,602789
1363.45,0.130379,804229,595663
1366.81,0.133803,803029,590103
1370.17,0.137451,801212,583843
1373.52,0.140723,799981,578571
1376.86,0.143971,798624,573286
1380.2,0.147515,795747,566578
1383.54,0.151855,792504,558658
1386.88,0.156085,790222,551651
1390.21,0.161322,788607,543924
1393.53,0.167357,785518,534317
1397.96,0.176081,779920,519959
1401.28,0.181999,776342,510568
1404.59,0.188937,773563,500678
1407.9,0.196638,769684,489412
1411.2,0.206076,765635,476372
1414.5,0.216702,762767,463116
1417.8,0.227732,760810,450344
1421.09,0.237967,758503,438521
1424.37,0.248266,755935,426794
1428.75,0.262575,753840,411817
1432.03,0.272380,752941,402143
1435.3,0.280107,751451,394270
1438.57,0.286908,750582,387695
1441.84,0.292706,749740,382124
1445.1,0.298558,748245,376258
1448.35,0.302661,747231,372215
1451.61,0.305952,746115,368853
1454.85,0.307105,743794,366731
1459.18,0.309436,741747,363764
1462.42,0.311615,739561,360877
1465.65,0.311945,736862,359287
1468.88,0.311876,734038,357967
1472.11,0.311362,730885,356851
1475.33,0.310540,727271,355759
1478.55,0.311494,723938,353352
1481.77,0.311528,721040,351910
1484.98,0.310819,717684,350844
1488.18,0.309148,713601,350193
1492.45,0.307043,708541,349399
1495.65,0.305878,704632,348405
1498.84,0.305407,700712,346843
1502.03,0.304148,695967,345494
1505.21,0.302038,691038,344718
1508.39,0.299703,686052,344076
1511.57,0.298117,680877,342730
1514.74,0.296412,675427,341324
1517.91,0.295775,670152,339155
1522.12,0.293332,662097,336969
1525.28,0.290799,656403,336025
1528.43,0.288291,650810,335091
1531.58,0.286518,644842,333377
1534.73,0.286072,638224,330294
1537.87,0.285311,631155,327209
1541.01,0.284324,625001,324756
1544.14,0.282011,618097,322883
1547.27,0.280263,610689,320300
1550.39,0.278636,602954,317430
1554.55,0.276774,592300,313161
1557.67,0.276975,584592,308943
1560.78,0.276335,576368,305046
1563.89,0.274559,568025,301862
1566.99,0.272595,559352,298600
1570.09,0.271315,550305,294638
1573.18,0.271429,541598,289900
1576.27,0.271352,532727,285202
1579.36,0.271326,523890,280488
1583.47,0.269288,510646,274683
1586.54,0.267070,501212,270989
1589.62,0.265779,492392,267013
1592.68,0.264819,482586,262274
1595.75,0.263942,472996,257582
1598.81,0.263944,462978,252125
1601.86,0.263108,453381,247375
1604.92,0.259750,443779,244015
1607.96,0.256527,433789,240299
1612.02,0.254041,420216,234116
1615.06,0.253045,409971,228933
1618.09,0.251619,400631,224453
1621.12,0.251198,390490,218984
1624.15,0.249430,380379,214184
1627.17,0.246214,370204,210004
1630.19,0.243027,360433,205967
1633.2,0.242217,350418,200618
1636.21,0.241147,340597,195476
1639.21,0.241832,330782,189544
1643.21,0.240775,317788,182542
1646.21,0.238190,307687,177795
1649.2,0.236593,297078,172297
1652.19,0.233202,287199,167873
1655.17,0.230661,276866,162783
1658.15,0.228843,265166,156558
1661.12,0.227165,252362,149575
1664.1,0.222991,238503,142726
1667.06,0.215342,222332,135413
1671.01,0.199273,197141,124596
1673.97,0.187366,175847,114227
1676.92,0.170286,154167,104161
1679.87,0.155809,132946,92868
1682.81,0.145822,113053,80809
1685.75,0.144737,95698,68575
1688.69,0.142528,80645,58083
1691.62,0.142029,68011,49040
1694.55,0.149869,57785,40921
1697.47,0.159930,49231,34065
1701.36,0.172219,40194,27036