File: WIPRO Turbo Internship/Datasets/Spices/ChillyPowderColumn 1_064090_20160418_164747.csv
Method:,Column 1,,
Host Date-Time:,18/4/16 @ 16:47:47,,
Header Version:,1,,
System Temp hundredths:,3274,,
Detector Temp hundredths:,3050,,
Humidity hundredths:,1331,,
Lamp PD:,3768,,
Shift Vector Coefficients:,-4.47974,0.0448891,-0.000109265,,
Pixel to Wavelength Coefficients:,1792.1,-0.928226,-0.000229463,,
Serial Number:,5490239,,
Scan Config Name:,Column 1,,
Scan Config Type:,2,,
Start wavelength in nm:,900,,
End wavelength in nm:,1700,,
Pattern Pixel Width:,6,,
Number of Measurement points:,228,,
Num Repeats:,6,,
PGA Gain:,64,,
Total Measurement Time (s):,2,,
Wavelength (nm),Absorbance (AU),Reference Signal (unitless),Sample Signal (unitless)
900.723,0.344666,64701,29258
905.903,0.269040,80807,43492
909.784,0.221498,90252,54195
913.66,0.191406,98832,63605
917.533,0.177301,108214,71942
921.401,0.181029,120081,79149
925.265,0.185495,134618,87823
929.125,0.190023,152080,98186
932.981,0.192710,171754,110204
936.833,0.188729,192235,124481
941.962,0.173723,218303,146331
945.804,0.162866,236285,162394
949.642,0.151437,252581,178223
953.475,0.141764,268843,193970
957.305,0.134348,284409,208735
961.131,0.130493,300415,222448
964.952,0.127482,315812,235476
968.769,0.125039,331706,248722
972.582,0.123196,347597,261746
976.391,0.121104,362603,274364
981.464,0.119946,381663,289557
985.263,0.116923,394207,301163
989.058,0.115320,405268,310758
992.849,0.113301,414919,319641
996.636,0.110917,422744,327462
1000.42,0.107766,429985,335496
1004.2,0.105867,435731,341469
1007.97,0.104057,439787,346087
1011.74,0.101674,442999,350533
1016.76,0.099589,446147,354723
1020.52,0.097847,447570,357284
1024.28,0.097036,448137,358406
1028.03,0.095230,447447,359345
1031.78,0.094385,447066,359738
1035.53,0.093048,446139,360099
1039.27,0.092337,445335,360039
1043,0.090684,443993,360323
1046.73,0.089918,441985,359327
1050.46,0.089198,439703,358065
1055.43,0.088853,438747,357570
1059.14,0.088992,437920,356782
1062.86,0.088895,436828,355972
1066.57,0.089708,436218,354810
1070.27,0.090044,437019,355186
1073.98,0.089971,437923,355981
1077.67,0.089830,438436,356514
1081.37,0.090664,439593,356769
1085.06,0.090723,441201,358025
1089.97,0.090258,442941,359822
1093.65,0.090747,445537,361524
1097.32,0.090056,448116,364195
1100.99,0.090458,449422,364919
1104.66,0.090037,451109,366644
1108.32,0.090144,453992,368896
1111.98,0.089991,457203,371636
1115.64,0.089818,459746,373852
1119.29,0.089670,461686,375558
1124.15,0.089323,463762,377548
1127.79,0.089381,465594,378989
1131.43,0.089769,467340,380070
1135.06,0.090482,468769,380607
1138.69,0.091791,470277,380682
1142.31,0.094357,471885,379734
1145.93,0.096292,474025,379760
1149.55,0.099014,475849,378839
1153.16,0.102523,477793,377326
1156.77,0.105867,479500,375770
1161.58,0.110933,482364,373630
1165.17,0.114840,485131,372408
1168.77,0.118704,488511,371681
1172.36,0.122772,491250,370280
1175.94,0.126069,494537,369939
1179.53,0.129152,498615,370351
1183.1,0.132235,504468,372048
1186.68,0.136502,510422,372758
1190.25,0.141147,516637,373283
1195,0.147147,526142,374935
1198.56,0.150966,533671,376971
1202.11,0.154840,540939,378711
1205.67,0.157894,548916,381603
1209.21,0.161168,558110,385081
1212.76,0.163476,566953,389109
1216.3,0.164732,575650,393937
1219.83,0.164273,584869,400669
1223.36,0.161844,595021,409910
1226.89,0.157497,604954,420945
1231.58,0.149760,617050,437079
1235.1,0.143988,626559,449753
1238.61,0.139077,636932,462398
1242.12,0.134572,647247,474786
1245.63,0.130799,655372,484941
1249.13,0.127945,664642,495043
1252.63,0.125087,674555,505743
1256.12,0.123210,684692,515567
1259.61,0.121026,692978,524437
1264.25,0.119917,706063,535706
1267.73,0.118551,716021,544973
1271.2,0.117561,725552,553487
1274.67,0.116179,734127,561813
1278.14,0.114867,742906,570252
1281.6,0.113838,750480,577432
1285.06,0.112718,757621,584432
1288.51,0.111743,764167,590807
1291.96,0.110800,771928,598104
1296.56,0.109383,779372,605846
1300,0.108839,783046,609464
1303.43,0.107850,787236,614123
1306.86,0.107266,792393,618977
1310.29,0.106748,796376,622831
1313.72,0.106702,798307,624407
1317.13,0.106555,801175,626862
1320.55,0.106762,804861,629447
1323.96,0.106532,807833,632106
1327.37,0.107287,809608,632394
1331.9,0.109088,811327,631114
1335.3,0.110048,812775,630844
1338.69,0.111061,813544,629970
1342.08,0.112716,812602,626847
1345.47,0.115082,811826,622846
1348.85,0.117094,811585,619784
1352.23,0.119077,810158,615875
1355.6,0.121188,807876,611162
1358.97,0.123880,805252,605413
1363.45,0.128984,804229,597580
1366.81,0.132005,803029,592552
1370.17,0.135529,801212,586433
1373.52,0.139156,799981,580662
1376.86,0.143077,798624,574467
1380.2,0.146465,795747,567950
1383.54,0.150097,792504,560925
1386.88,0.153769,790222,554600
1390.21,0.159567,788607,546127
1393.53,0.165232,785518,536938
1397.96,0.173012,779920,523646
1401.28,0.179130,776342,513953
1404.59,0.186516,773563,503477
1407.9,0.194453,769684,491880
1411.2,0.203345,765635,479376
1414.5,0.213601,762767,466435
1417.8,0.224550,760810,453656
1421.09,0.235511,758503,441008
1424.37,0.245931,755935,429095
1428.75,0.259793,753840,414463
1432.03,0.269266,752941,405037
1435.3,0.277766,751451,396401
1438.57,0.284415,750582,389927
1441.84,0.290592,749740,383989
1445.1,0.295483,748245,378932
1448.35,0.300256,747231,374282
1451.61,0.303389,746115,371037
1454.85,0.305474,743794,368111
1459.18,0.308039,741747,364936
1462.42,0.308491,739561,363482
1465.65,0.309830,736862,361041
1468.88,0.310308,734038,359261
1472.11,0.310549,730885,357520
1475.33,0.310693,727271,355634
1478.55,0.310470,723938,354186
1481.77,0.309547,721040,353519
1484.98,0.309465,717684,351940
1488.18,0.308250,713601,350918
1492.45,0.307261,708541,349224
1495.65,0.305781,704632,348483
1498.84,0.304324,700712,347709
1502.03,0.302381,695967,346903
1505.21,0.301016,691038,345530
1508.39,0.299742,686052,344045
1511.57,0.297763,680877,343009
1514.74,0.296081,675427,341584
1517.91,0.294357,670152,340264
1522.12,0.291208,662097,338621
1525.28,0.290196,656403,336492
1528.43,0.288122,650810,335222
1531.58,0.287021,644842,332991
1534.73,0.285101,638224,331034
1537.87,0.284230,631155,328024
1541.01,0.282225,625001,326329
1544.14,0.280173,618097,324253
1547.27,0.279285,610689,321022
1550.39,0.277772,602954,318062
1554.55,0.276785,592300,313153
1557.67,0.275851,584592,309743
1560.78,0.273828,576368,306812
1563.89,0.272305,568025,303433
1566.99,0.271200,559352,299561
1570.09,0.270578,550305,295138
1573.18,0.270241,541598,290694
1576.27,0.269565,532727,286378
1579.36,0.268891,523890,282065
1583.47,0.267071,510646,276089
1586.54,0.265366,501212,272054
1589.62,0.264531,492392,267781
1592.68,0.263711,482586,262944
1595.75,0.261923,472996,258782
1598.81,0.261141,462978,253758
1601.86,0.259259,453381,249577
1604.92,0.257085,443779,245517
1607.96,0.254243,433789,241566
1612.02,0.252044,420216,235195
1615.06,0.250450,409971,230305
1618.09,0.248646,400631,225995
1621.12,0.246587,390490,221321
1624.15,0.245491,380379,216135
1627.17,0.242402,370204,211855
1630.19,0.241093,360433,206886
1633.2,0.238795,350418,202205
1636.21,0.237713,340597,197028
1639.21,0.237525,330782,191433
1643.21,0.236497,317788,184349
1646.21,0.234900,307687,179147
1649.2,0.232451,297078,173948
1652.19,0.229618,287199,169264
1655.17,0.227579,276866,163942
1658.15,0.224644,265166,158079
1661.12,0.222225,252362,151286
1664.1,0.218809,238503,144107
1667.06,0.210684,222332,136873
1671.01,0.198225,197141,124897
1673.97,0.184668,175847,114939
1676.92,0.169174,154167,104428
1679.87,0.154413,132946,93167
1682.81,0.142487,113053,81432
1685.75,0.138013,95698,69645
1688.69,0.136027,80645,58959
1691.62,0.140720,68011,49188
1694.55,0.147847,57785,41112
1697.47,0.156261,49231,34354
1701.36,0.168795,40194,27250