File: WIPRO Turbo Internship/Datasets/Spices/ChillyPowderColumn 1_064085_20160418_164722.csv
Method:,Column 1,,
Host Date-Time:,18/4/16 @ 16:47:22,,
Header Version:,1,,
System Temp hundredths:,3261,,
Detector Temp hundredths:,3022,,
Humidity hundredths:,1340,,
Lamp PD:,3771,,
Shift Vector Coefficients:,-4.47974,0.0448891,-0.000109265,,
Pixel to Wavelength Coefficients:,1792.1,-0.928226,-0.000229463,,
Serial Number:,5490239,,
Scan Config Name:,Column 1,,
Scan Config Type:,2,,
Start wavelength in nm:,900,,
End wavelength in nm:,1700,,
Pattern Pixel Width:,6,,
Number of Measurement points:,228,,
Num Repeats:,6,,
PGA Gain:,64,,
Total Measurement Time (s):,2,,
Wavelength (nm),Absorbance (AU),Reference Signal (unitless),Sample Signal (unitless)
900.723,0.354727,64701,28588
905.903,0.278937,80807,42512
909.784,0.225814,90252,53659
913.66,0.199581,98832,62419
917.533,0.187668,108214,70245
921.401,0.189243,120081,77666
925.265,0.192368,134618,86444
929.125,0.201106,152080,95712
932.981,0.200391,171754,108272
936.833,0.194291,192235,122897
941.962,0.180351,218303,144115
945.804,0.168828,236285,160180
949.642,0.156560,252581,176133
953.475,0.148213,268843,191111
957.305,0.140916,284409,205602
961.131,0.135672,300415,219811
964.952,0.132823,315812,232598
968.769,0.130226,331706,245769
972.582,0.127967,347597,258886
976.391,0.126885,362603,270736
981.464,0.124069,381663,286821
985.263,0.122245,394207,297495
989.058,0.119647,405268,307677
992.849,0.117478,414919,316581
996.636,0.115025,422744,324379
1000.42,0.113200,429985,331324
1004.2,0.110513,435731,337836
1007.97,0.108641,439787,342453
1011.74,0.106424,442999,346720
1016.76,0.104158,446147,351010
1020.52,0.103148,447570,352950
1024.28,0.101817,448137,354482
1028.03,0.100237,447447,355226
1031.78,0.099141,447066,355820
1035.53,0.097670,446139,356287
1039.27,0.097045,445335,356157
1043,0.096212,443993,355766
1046.73,0.095578,441985,354674
1050.46,0.094340,439703,353850
1055.43,0.094048,438747,353318
1059.14,0.093431,437920,353154
1062.86,0.094243,436828,351615
1066.57,0.094113,436218,351229
1070.27,0.094657,437019,351434
1073.98,0.094766,437923,352072
1077.67,0.094374,438436,352803
1081.37,0.094392,439593,353719
1085.06,0.095430,441201,354166
1089.97,0.095119,442941,355817
1093.65,0.094398,445537,358497
1097.32,0.094596,448116,360408
1100.99,0.094353,449422,361661
1104.66,0.093747,451109,363525
1108.32,0.093966,453992,365664
1111.98,0.093827,457203,368368
1115.64,0.093186,459746,370964
1119.29,0.093702,461686,372087
1124.15,0.092800,463762,374537
1127.79,0.093384,465594,375512
1131.43,0.093973,467340,376409
1135.06,0.094209,468769,377355
1138.69,0.096196,470277,376841
1142.31,0.098331,471885,376275
1145.93,0.100056,474025,376483
1149.55,0.102708,475849,375631
1153.16,0.106188,477793,374155
1156.77,0.109519,479500,372623
1161.58,0.114441,482364,370624
1165.17,0.117438,485131,370187
1168.77,0.122139,488511,368753
1172.36,0.125314,491250,368119
1175.94,0.128829,494537,367595
1179.53,0.131598,498615,368271
1183.1,0.134422,504468,370179
1186.68,0.138649,510422,370920
1190.25,0.143662,516637,371128
1195,0.149818,526142,372636
1198.56,0.153303,533671,374948
1202.11,0.156387,540939,377365
1205.67,0.160460,548916,379355
1209.21,0.163592,558110,382937
1212.76,0.165908,566953,386936
1216.3,0.167845,575650,391123
1219.83,0.166873,584869,398277
1223.36,0.164771,595021,407156
1226.89,0.160588,604954,417960
1231.58,0.153010,617050,433821
1235.1,0.147572,626559,446057
1238.61,0.142695,636932,458562
1242.12,0.138623,647247,470378
1245.63,0.134331,655372,481013
1249.13,0.131474,664642,491036
1252.63,0.129018,674555,501187
1256.12,0.126858,684692,511255
1259.61,0.124945,692978,519726
1264.25,0.124439,706063,530157
1267.73,0.123093,716021,539303
1271.2,0.122411,725552,547341
1274.67,0.120942,734127,555686
1278.14,0.120170,742906,563331
1281.6,0.118639,750480,571084
1285.06,0.117296,757621,578304
1288.51,0.116694,764167,584109
1291.96,0.115893,771928,591131
1296.56,0.114335,779372,598977
1300,0.113783,783046,602566
1303.43,0.113053,787236,606809
1306.86,0.112532,792393,611517
1310.29,0.111805,796376,615620
1313.72,0.111477,798307,617580
1317.13,0.111781,801175,619365
1320.55,0.111641,804861,622415
1323.96,0.111592,807833,624784
1327.37,0.112331,809608,625092
1331.9,0.113512,811327,624718
1335.3,0.114654,812775,624189
1338.69,0.115530,813544,623521
1342.08,0.116825,812602,620944
1345.47,0.118763,811826,617590
1348.85,0.120993,811585,614244
1352.23,0.122797,810158,610623
1355.6,0.124646,807876,606315
1358.97,0.127322,805252,600634
1363.45,0.131868,804229,593624
1366.81,0.134934,803029,588569
1370.17,0.138455,801212,582495
1373.52,0.141440,799981,577616
1376.86,0.145178,798624,571695
1380.2,0.148612,795747,565149
1383.54,0.152219,792504,558190
1386.88,0.155812,790222,551997
1390.21,0.162027,788607,543042
1393.53,0.168120,785518,533379
1397.96,0.175913,779920,520160
1401.28,0.181431,776342,511237
1404.59,0.188928,773563,500689
1407.9,0.196811,769684,489217
1411.2,0.205904,765635,476560
1414.5,0.215686,762767,464201
1417.8,0.226658,760810,451459
1421.09,0.237336,758503,439159
1424.37,0.248147,755935,426911
1428.75,0.262096,753840,412271
1432.03,0.271123,752941,403309
1435.3,0.279918,751451,394442
1438.57,0.286434,750582,388118
1441.84,0.293474,749740,381449
1445.1,0.299020,748245,375858
1448.35,0.303056,747231,371877
1451.61,0.305439,746115,369289
1454.85,0.307366,743794,366511
1459.18,0.310480,741747,362891
1462.42,0.312057,739561,360510
1465.65,0.312654,736862,358701
1468.88,0.312570,734038,357395
1472.11,0.312583,730885,355849
1475.33,0.313393,727271,353430
1478.55,0.313586,723938,351654
1481.77,0.313098,721040,350640
1484.98,0.311979,717684,349908
1488.18,0.311574,713601,348242
1492.45,0.309409,708541,347501
1495.65,0.308545,704632,346272
1498.84,0.308306,700712,344535
1502.03,0.306055,695967,343980
1505.21,0.304469,691038,342794
1508.39,0.302162,686052,342133
1511.57,0.300893,680877,340546
1514.74,0.299556,675427,338862
1517.91,0.298309,670152,337182
1522.12,0.295019,662097,335662
1525.28,0.293278,656403,334112
1528.43,0.291502,650810,332623
1531.58,0.290044,644842,330681
1534.73,0.289385,638224,327784
1537.87,0.287661,631155,325443
1541.01,0.286619,625001,323044
1544.14,0.284790,618097,320824
1547.27,0.283464,610689,317948
1550.39,0.282448,602954,314656
1554.55,0.281345,592300,309882
1557.67,0.280502,584592,306444
1560.78,0.278222,576368,303723
1563.89,0.277032,568025,300148
1566.99,0.274962,559352,296977
1570.09,0.274651,550305,292383
1573.18,0.274573,541598,287809
1576.27,0.274530,532727,283123
1579.36,0.273413,523890,279143
1583.47,0.270441,510646,273955
1586.54,0.269310,501212,269595
1589.62,0.268520,492392,265333
1592.68,0.267999,482586,260361
1595.75,0.266945,472996,255807
1598.81,0.265342,462978,251315
1601.86,0.263206,453381,247319
1604.92,0.260893,443779,243374
1607.96,0.257511,433789,239755
1612.02,0.255664,420216,233243
1615.06,0.254544,409971,228144
1618.09,0.253180,400631,223648
1621.12,0.252200,390490,218479
1624.15,0.248897,380379,214447
1627.17,0.245788,370204,210210
1630.19,0.244558,360433,205242
1633.2,0.243624,350418,199969
1636.21,0.243837,340597,194269
1639.21,0.241885,330782,189521
1643.21,0.239532,317788,183065
1646.21,0.238028,307687,177861
1649.2,0.236084,297078,172499
1652.19,0.232985,287199,167957
1655.17,0.232093,276866,162247
1658.15,0.231491,265166,155606
1661.12,0.226605,252362,149768
1664.1,0.220460,238503,143560
1667.06,0.214105,222332,135799
1671.01,0.198082,197141,124938
1673.97,0.184864,175847,114887
1676.92,0.170215,154167,104178
1679.87,0.155739,132946,92883
1682.81,0.146032,113053,80770
1685.75,0.138631,95698,69546
1688.69,0.138354,80645,58644
1691.62,0.142410,68011,48997
1694.55,0.148788,57785,41023
1697.47,0.158263,49231,34196
1701.36,0.180473,40194,26527