File: WIPRO Turbo Internship/Datasets/Spices/ChillyPowderColumn 1_064086_20160418_164726.csv
Method:,Column 1,,
Host Date-Time:,18/4/16 @ 16:47:26,,
Header Version:,1,,
System Temp hundredths:,3263,,
Detector Temp hundredths:,3030,,
Humidity hundredths:,1341,,
Lamp PD:,3767,,
Shift Vector Coefficients:,-4.47974,0.0448891,-0.000109265,,
Pixel to Wavelength Coefficients:,1792.1,-0.928226,-0.000229463,,
Serial Number:,5490239,,
Scan Config Name:,Column 1,,
Scan Config Type:,2,,
Start wavelength in nm:,900,,
End wavelength in nm:,1700,,
Pattern Pixel Width:,6,,
Number of Measurement points:,228,,
Num Repeats:,6,,
PGA Gain:,64,,
Total Measurement Time (s):,2,,
Wavelength (nm),Absorbance (AU),Reference Signal (unitless),Sample Signal (unitless)
900.723,0.352032,64701,28766
905.903,0.270801,80807,43316
909.784,0.225766,90252,53665
913.66,0.194222,98832,63194
917.533,0.184078,108214,70828
921.401,0.184903,120081,78446
925.265,0.191565,134618,86604
929.125,0.197810,152080,96441
932.981,0.197596,171754,108971
936.833,0.191364,192235,123728
941.962,0.178141,218303,144850
945.804,0.166570,236285,161015
949.642,0.154742,252581,176872
953.475,0.145456,268843,192328
957.305,0.138964,284409,206528
961.131,0.134731,300415,220288
964.952,0.131927,315812,233078
968.769,0.128160,331706,246941
972.582,0.126904,347597,259521
976.391,0.125526,362603,271585
981.464,0.122487,381663,287868
985.263,0.120707,394207,298550
989.058,0.118718,405268,308336
992.849,0.116333,414919,317417
996.636,0.114256,422744,324954
1000.42,0.111750,429985,332432
1004.2,0.110312,435731,337992
1007.97,0.107158,439787,343625
1011.74,0.105039,442999,347827
1016.76,0.103017,446147,351934
1020.52,0.101495,447570,354296
1024.28,0.100404,448137,355637
1028.03,0.099214,447447,356064
1031.78,0.098485,447066,356358
1035.53,0.096504,446139,357245
1039.27,0.095858,445335,357132
1043,0.094753,443993,356963
1046.73,0.093775,441985,356150
1050.46,0.092638,439703,355240
1055.43,0.092705,438747,354413
1059.14,0.093018,437920,353490
1062.86,0.093138,436828,352511
1066.57,0.093125,436218,352029
1070.27,0.093108,437019,352689
1073.98,0.094404,437923,352366
1077.67,0.093506,438436,353509
1081.37,0.094455,439593,353668
1085.06,0.094428,441201,354984
1089.97,0.093945,442941,356780
1093.65,0.093586,445537,359168
1097.32,0.094052,448116,360860
1100.99,0.093735,449422,362176
1104.66,0.093068,451109,364094
1108.32,0.093441,453992,366106
1111.98,0.092585,457203,369423
1115.64,0.092557,459746,371502
1119.29,0.092842,461686,372825
1124.15,0.092600,463762,374710
1127.79,0.092394,465594,376369
1131.43,0.093483,467340,376834
1135.06,0.093518,468769,377956
1138.69,0.094838,470277,378021
1142.31,0.097408,471885,377075
1145.93,0.099609,474025,376871
1149.55,0.102136,475849,376126
1153.16,0.105381,477793,374851
1156.77,0.108749,479500,373284
1161.58,0.113258,482364,371635
1165.17,0.117793,485131,369884
1168.77,0.121731,488511,369099
1172.36,0.125418,491250,368031
1175.94,0.128176,494537,368148
1179.53,0.131010,498615,368770
1183.1,0.134199,504468,370369
1186.68,0.138737,510422,370845
1190.25,0.142559,516637,372072
1195,0.148719,526142,373580
1198.56,0.152604,533671,375552
1202.11,0.156930,540939,376893
1205.67,0.159515,548916,380181
1209.21,0.163252,558110,383237
1212.76,0.165618,566953,387194
1216.3,0.167060,575650,391831
1219.83,0.166577,584869,398549
1223.36,0.163891,595021,407982
1226.89,0.159390,604954,419114
1231.58,0.152317,617050,434514
1235.1,0.146299,626559,447366
1238.61,0.140734,636932,460637
1242.12,0.137036,647247,472100
1245.63,0.132952,655372,482543
1249.13,0.129920,664642,492797
1252.63,0.127244,674555,503238
1256.12,0.125308,684692,513082
1259.61,0.123071,692978,521973
1264.25,0.121380,706063,533904
1267.73,0.121382,716021,541432
1271.2,0.120057,725552,550315
1274.67,0.118246,734127,559146
1278.14,0.117309,742906,567055
1281.6,0.116039,750480,574513
1285.06,0.115102,757621,581232
1288.51,0.113666,764167,588196
1291.96,0.113283,771928,594695
1296.56,0.112408,779372,601640
1300,0.111165,783046,606209
1303.43,0.110591,787236,610258
1306.86,0.110019,792393,615066
1310.29,0.109984,796376,618208
1313.72,0.109492,798307,620409
1317.13,0.109548,801175,622558
1320.55,0.109578,804861,625378
1323.96,0.110286,807833,626665
1327.37,0.110344,809608,627958
1331.9,0.111870,811327,627084
1335.3,0.113227,812775,626244
1338.69,0.114791,813544,624583
1342.08,0.115867,812602,622316
1345.47,0.117374,811826,619568
1348.85,0.119922,811585,615761
1352.23,0.122148,810158,611536
1355.6,0.124171,807876,606979
1358.97,0.126436,805252,601861
1363.45,0.131093,804229,594684
1366.81,0.134645,803029,588961
1370.17,0.137892,801212,583251
1373.52,0.141250,799981,577869
1376.86,0.144498,798624,572591
1380.2,0.148426,795747,565391
1383.54,0.152262,792504,558135
1386.88,0.156193,790222,551513
1390.21,0.161398,788607,543829
1393.53,0.167458,785518,534193
1397.96,0.176021,779920,520031
1401.28,0.182189,776342,510345
1404.59,0.189204,773563,500370
1407.9,0.197152,769684,488833
1411.2,0.206145,765635,476296
1414.5,0.216916,762767,462888
1417.8,0.228037,760810,450028
1421.09,0.237900,758503,438589
1424.37,0.248713,755935,426355
1428.75,0.262949,753840,411462
1432.03,0.272762,752941,401790
1435.3,0.280657,751451,393771
1438.57,0.287807,750582,386893
1441.84,0.293969,749740,381015
1445.1,0.299592,748245,375363
1448.35,0.303853,747231,371195
1451.61,0.306481,746115,368404
1454.85,0.307966,743794,366005
1459.18,0.310778,741747,362642
1462.42,0.312778,739561,359912
1465.65,0.313629,736862,357896
1468.88,0.313240,734038,356844
1472.11,0.313053,730885,355464
1475.33,0.313109,727271,353661
1478.55,0.313178,723938,351984
1481.77,0.312853,721040,350838
1484.98,0.312665,717684,349356
1488.18,0.311195,713601,348546
1492.45,0.308775,708541,348009
1495.65,0.308194,704632,346552
1498.84,0.308130,700712,344675
1502.03,0.306121,695967,343928
1505.21,0.303643,691038,343446
1508.39,0.301573,686052,342597
1511.57,0.299720,680877,341467
1514.74,0.298105,675427,339996
1517.91,0.297298,670152,337968
1522.12,0.294554,662097,336022
1525.28,0.292102,656403,335018
1528.43,0.289908,650810,333846
1531.58,0.288547,644842,331823
1534.73,0.287384,638224,329298
1537.87,0.286853,631155,326049
1541.01,0.285028,625001,324230
1544.14,0.283035,618097,322123
1547.27,0.280397,610689,320201
1550.39,0.279780,602954,316595
1554.55,0.278565,592300,311872
1557.67,0.278299,584592,308002
1560.78,0.277141,576368,304480
1563.89,0.275530,568025,301188
1566.99,0.273396,559352,298050
1570.09,0.272277,550305,293986
1573.18,0.272728,541598,289034
1576.27,0.272748,532727,284287
1579.36,0.272537,523890,279707
1583.47,0.270393,510646,273985
1586.54,0.268651,501212,270004
1589.62,0.267658,492392,265860
1592.68,0.265978,482586,261575
1595.75,0.265923,472996,256410
1598.81,0.264744,462978,251661
1601.86,0.263260,453381,247288
1604.92,0.260058,443779,243842
1607.96,0.257484,433789,239770
1612.02,0.254998,420216,233601
1615.06,0.253985,409971,228438
1618.09,0.254496,400631,222971
1621.12,0.252119,390490,218520
1624.15,0.250048,380379,213879
1627.17,0.247462,370204,209401
1630.19,0.245310,360433,204887
1633.2,0.244008,350418,199792
1636.21,0.243770,340597,194299
1639.21,0.243517,330782,188810
1643.21,0.243148,317788,181547
1646.21,0.241773,307687,176334
1649.2,0.237976,297078,171749
1652.19,0.233647,287199,167701
1655.17,0.232489,276866,162099
1658.15,0.230666,265166,155902
1661.12,0.228305,252362,149183
1664.1,0.224781,238503,142139
1667.06,0.220114,222332,133933
1671.01,0.203064,197141,123513
1673.97,0.188047,175847,114048
1676.92,0.170966,154167,103998
1679.87,0.160653,132946,91838
1682.81,0.147988,113053,80407
1685.75,0.144009,95698,68690
1688.69,0.141834,80645,58176
1691.62,0.147752,68011,48398
1694.55,0.153685,57785,40563
1697.47,0.160900,49231,33989
1701.36,0.177796,40194,26691