File: WIPRO Turbo Internship/Datasets/Spices/ChillyPowderColumn 1_064088_20160418_164734.csv
Method:,Column 1,,
Host Date-Time:,18/4/16 @ 16:47:34,,
Header Version:,1,,
System Temp hundredths:,3269,,
Detector Temp hundredths:,3053,,
Humidity hundredths:,1341,,
Lamp PD:,3768,,
Shift Vector Coefficients:,-4.47974,0.0448891,-0.000109265,,
Pixel to Wavelength Coefficients:,1792.1,-0.928226,-0.000229463,,
Serial Number:,5490239,,
Scan Config Name:,Column 1,,
Scan Config Type:,2,,
Start wavelength in nm:,900,,
End wavelength in nm:,1700,,
Pattern Pixel Width:,6,,
Number of Measurement points:,228,,
Num Repeats:,6,,
PGA Gain:,64,,
Total Measurement Time (s):,2,,
Wavelength (nm),Absorbance (AU),Reference Signal (unitless),Sample Signal (unitless)
900.723,0.351941,64701,28772
905.903,0.273274,80807,43070
909.784,0.222685,90252,54047
913.66,0.195605,98832,62993
917.533,0.181730,108214,71212
921.401,0.183340,120081,78729
925.265,0.189299,134618,87057
929.125,0.193888,152080,97316
932.981,0.195810,171754,109420
936.833,0.191948,192235,123562
941.962,0.176024,218303,145558
945.804,0.164957,236285,161614
949.642,0.152718,252581,177698
953.475,0.143438,268843,193224
957.305,0.137776,284409,207094
961.131,0.132715,300415,221313
964.952,0.129201,315812,234546
968.769,0.127087,331706,247552
972.582,0.125912,347597,260114
976.391,0.124003,362603,272539
981.464,0.121432,381663,288568
985.263,0.119548,394207,299348
989.058,0.117723,405268,309043
992.849,0.115952,414919,317696
996.636,0.113310,422744,325662
1000.42,0.110595,429985,333318
1004.2,0.108592,435731,339333
1007.97,0.106985,439787,343762
1011.74,0.104378,442999,348357
1016.76,0.101919,446147,352825
1020.52,0.101270,447570,354479
1024.28,0.099487,448137,356389
1028.03,0.097757,447447,357260
1031.78,0.097073,447066,357519
1035.53,0.095870,446139,357767
1039.27,0.094685,445335,358098
1043,0.093719,443993,357814
1046.73,0.092678,441985,357050
1050.46,0.091541,439703,356138
1055.43,0.091637,438747,355285
1059.14,0.091020,437920,355120
1062.86,0.091946,436828,353480
1066.57,0.091830,436218,353080
1070.27,0.091885,437019,353684
1073.98,0.092130,437923,354216
1077.67,0.091951,438436,354777
1081.37,0.092429,439593,355322
1085.06,0.092883,441201,356249
1089.97,0.092564,442941,357917
1093.65,0.092642,445537,359950
1097.32,0.092405,448116,362231
1100.99,0.091716,449422,363863
1104.66,0.091675,451109,365264
1108.32,0.091648,453992,367621
1111.98,0.091242,457203,370567
1115.64,0.090566,459746,373209
1119.29,0.091003,461686,374407
1124.15,0.091120,463762,375989
1127.79,0.090392,465594,378108
1131.43,0.091377,467340,378666
1135.06,0.091992,468769,379286
1138.69,0.092744,470277,379848
1142.31,0.095025,471885,379150
1145.93,0.097412,474025,378782
1149.55,0.099987,475849,377992
1153.16,0.103516,477793,376464
1156.77,0.106686,479500,375062
1161.58,0.112152,482364,372583
1165.17,0.115217,485131,372085
1168.77,0.119733,488511,370801
1172.36,0.123288,491250,369841
1175.94,0.126890,494537,369240
1179.53,0.129693,498615,369890
1183.1,0.132874,504468,371501
1186.68,0.137105,510422,372241
1190.25,0.141607,516637,372888
1195,0.147088,526142,374986
1198.56,0.151492,533671,376514
1202.11,0.155048,540939,378530
1205.67,0.158611,548916,380974
1209.21,0.161452,558110,384829
1212.76,0.164806,566953,387919
1216.3,0.165353,575650,393374
1219.83,0.164955,584869,400040
1223.36,0.162451,595021,409337
1226.89,0.157984,604954,420473
1231.58,0.150526,617050,436309
1235.1,0.145250,626559,448448
1238.61,0.139658,636932,461780
1242.12,0.135789,647247,473458
1245.63,0.132170,655372,483412
1249.13,0.128892,664642,493965
1252.63,0.126154,674555,504503
1256.12,0.124622,684692,513894
1259.61,0.122342,692978,522850
1264.25,0.120861,706063,534543
1267.73,0.120025,716021,543126
1271.2,0.119172,725552,551438
1274.67,0.117552,734127,560040
1278.14,0.116175,742906,568537
1281.6,0.115489,750480,575241
1285.06,0.114392,757621,582184
1288.51,0.113104,764167,588958
1291.96,0.112076,771928,596350
1296.56,0.111298,779372,603180
1300,0.110474,783046,607174
1303.43,0.109310,787236,612062
1306.86,0.109050,792393,616440
1310.29,0.108640,796376,620123
1313.72,0.108133,798307,622353
1317.13,0.107905,801175,624917
1320.55,0.108512,804861,626916
1323.96,0.108749,807833,628887
1327.37,0.109483,809608,629205
1331.9,0.110502,811327,629062
1335.3,0.111781,812775,628332
1338.69,0.113059,813544,627078
1342.08,0.114300,812602,624565
1345.47,0.116205,811826,621238
1348.85,0.118237,811585,618155
1352.23,0.120644,810158,613657
1355.6,0.123030,807876,608576
1358.97,0.125133,805252,603669
1363.45,0.129448,804229,596941
1366.81,0.133062,803029,591111
1370.17,0.136553,801212,585052
1373.52,0.139842,799981,579746
1376.86,0.143188,798624,574321
1380.2,0.146786,795747,567530
1383.54,0.151185,792504,559521
1386.88,0.155304,790222,552643
1390.21,0.160447,788607,545021
1393.53,0.166104,785518,535861
1397.96,0.174697,779920,521619
1401.28,0.181160,776342,511556
1404.59,0.188162,773563,501572
1407.9,0.195936,769684,490203
1411.2,0.205289,765635,477235
1414.5,0.215791,762767,464089
1417.8,0.227110,760810,450989
1421.09,0.237451,758503,439042
1424.37,0.247909,755935,427145
1428.75,0.261732,753840,412617
1432.03,0.270981,752941,403441
1435.3,0.279909,751451,394450
1438.57,0.286874,750582,387725
1441.84,0.292640,749740,382182
1445.1,0.297908,748245,376822
1448.35,0.303399,747231,371583
1451.61,0.306208,746115,368636
1454.85,0.307300,743794,366566
1459.18,0.308631,741747,364439
1462.42,0.310704,739561,361635
1465.65,0.311399,736862,359739
1468.88,0.312506,734038,357448
1472.11,0.311697,730885,356576
1475.33,0.311229,727271,355195
1478.55,0.311660,723938,353217
1481.77,0.311803,721040,351687
1484.98,0.311535,717684,350266
1488.18,0.310141,713601,349393
1492.45,0.307489,708541,349041
1495.65,0.305706,704632,348543
1498.84,0.306141,700712,346257
1502.03,0.304731,695967,345031
1505.21,0.302762,691038,344144
1508.39,0.300745,686052,343251
1511.57,0.298275,680877,342605
1514.74,0.297051,675427,340822
1517.91,0.295625,670152,339272
1522.12,0.293700,662097,336683
1525.28,0.291693,656403,335334
1528.43,0.288599,650810,334854
1531.58,0.286463,644842,333419
1534.73,0.286001,638224,330348
1537.87,0.285651,631155,326953
1541.01,0.284804,625001,324397
1544.14,0.282811,618097,322289
1547.27,0.279880,610689,320583
1550.39,0.278132,602954,317799
1554.55,0.277390,592300,312717
1557.67,0.276733,584592,309115
1560.78,0.276115,576368,305200
1563.89,0.274064,568025,302206
1566.99,0.272034,559352,298986
1570.09,0.271172,550305,294735
1573.18,0.270495,541598,290524
1576.27,0.270813,532727,285556
1579.36,0.271451,523890,280407
1583.47,0.268843,510646,274965
1586.54,0.266886,501212,271104
1589.62,0.265388,492392,267253
1592.68,0.264263,482586,262610
1595.75,0.263477,472996,257858
1598.81,0.263110,462978,252610
1601.86,0.261656,453381,248203
1604.92,0.259078,443779,244393
1607.96,0.255977,433789,240603
1612.02,0.253635,420216,234335
1615.06,0.252139,409971,229411
1618.09,0.251801,400631,224359
1621.12,0.250437,390490,219368
1624.15,0.249596,380379,214102
1627.17,0.245684,370204,210260
1630.19,0.242886,360433,206034
1633.2,0.241401,350418,200995
1636.21,0.241427,340597,195350
1639.21,0.241463,330782,189705
1643.21,0.240706,317788,182571
1646.21,0.238950,307687,177484
1649.2,0.235956,297078,172550
1652.19,0.232667,287199,168080
1655.17,0.231125,276866,162609
1658.15,0.228765,265166,156586
1661.12,0.227150,252362,149580
1664.1,0.223161,238503,142670
1667.06,0.216916,222332,134923
1671.01,0.200432,197141,124264
1673.97,0.184528,175847,114976
1676.92,0.170612,154167,104083
1679.87,0.156886,132946,92638
1682.81,0.143133,113053,81311
1685.75,0.141978,95698,69012
1688.69,0.144710,80645,57792
1691.62,0.142755,68011,48958
1694.55,0.152477,57785,40676
1697.47,0.165977,49231,33594
1701.36,0.176091,40194,26796